select I, 1, 8
! Flux (Jy) Radius (mas)  Theta (deg)  Major FWHM (mas)  Axial ratio   Phi (deg) T \
! Freq (Hz)     SpecIndex
  0.349856    0.0565684     -135.000 
  0.189596     0.796241      64.7223 
 0.0934416    0.0447212     -153.435 
 0.0429787    0.0199999      180.000 
  0.185234     0.778203      64.0935 
 0.0422179    0.0399999      90.0000 
 0.0505952    0.0632457      71.5652 
 0.0423910     0.107703      68.1986 
 0.0685705     0.156205     -129.806 
 0.0664967     0.152315      66.8013 
 0.0630534     0.196977      66.0375 
  0.217402     0.769675      65.4328 
  0.110557     0.200000     -126.870 
 0.0828784     0.223607      63.4349 
 0.0261490     0.751532      64.7989 
 0.0847202     0.268328      63.4349 
 0.0653146     0.250599      61.3895 
 0.0640362     0.216333     -123.690 
 0.0204120     0.228035     -127.875 
 0.0179942     0.244131     -124.992 
 0.0455731     0.501598      66.5014 
 0.0172713     0.913893      66.8014 
  0.127897     0.178885      63.4348 
 0.0327365     0.260768     -122.471 
 0.0306013     0.940213      66.1613 
 0.0444048     0.546260      66.2505 
 0.0287976     0.958540      66.6444 
 0.0149039     0.277849     -120.256 
 0.0143080     0.483322      65.5560 
 0.0397561     0.288444     -123.690 
 0.0605804     0.528015      65.3764 
 0.0511836     0.161245      60.2551 
 0.0241391     0.976934      67.1095 
 0.0120455     0.984886      66.0375 
 0.0613828     0.305287     -121.607 
 0.0871466      1.00319      66.5014 
 0.0904361     0.322490     -119.745 
 0.0141311     0.554617      64.3590 
 0.0477172      1.02157      66.9487 
 0.0273547     0.536656      63.4349 
0.00521026     0.332866     -122.735 
 0.0134682      2.70296      65.5210 
0.00827778     0.170880      69.4439 
0.00451838     0.545894      61.5571 
0.00426392     0.563560      62.5256 
0.00406117      2.69474      65.9080 
0.00406042     0.483736      60.2551 
0.00389221      2.48467      67.7704 
0.00382634     0.528394      60.5241 
0.00376575      2.73942      65.8676 
0.00364698      2.44008      67.8498 
0.00360819     0.555698      59.7436 
0.00686338      2.77597      66.2052 
0.00344527      2.43261      68.2861 
0.00661917     0.538516      58.6713 
0.00326064      2.40308      67.4902 
0.00318319     0.828734      81.6744 
0.00315128      2.79428      66.3706 
0.00308909     0.126491      71.5651 
0.00599519      2.39550      67.9321 
0.00303806     0.956033      52.6506 
0.00300158     0.466476      59.0362 
0.00299701      2.81261      66.5339 
0.00579767     0.340000     -118.072 
0.00292918      1.05849      67.7965 
0.00284353     0.521536      57.5288 
0.00554280      2.83097      66.6951 
0.00277686      2.37697      67.7510 
0.00276488     0.965401      50.0425 
0.00272567     0.823893      84.4278 
0.00752556     0.477074      56.9761 
0.00512094     0.357771     -116.565 
0.00263976      2.43516      70.8210 
0.00259204      1.06977      69.1932 
0.00255760     0.101980      78.6901 
0.00954137      2.84935      66.8542 
0.00494919      2.33735      66.2864 
0.00252407     0.935094      48.4682 
0.00465223     0.843801      84.5597 
 0.0116889    0.0824622      75.9638 
0.00233953      2.47935      72.1497 
0.00233526     0.963327      48.3665 
0.00657789     0.384708     -117.897 
0.00223486      2.30078      65.8858 
0.00597493     0.460434      55.6197 
0.00218582     0.976729      47.4895 
0.00771936      2.47330      72.5907 
0.00210755      2.86775      67.0113 
0.00209202      1.08849      69.5672 
0.00208687     0.488262      55.0080 
0.00206795      2.28254      65.6807 
0.00390959     0.962081      46.6847 
0.00393533      2.86000      67.3801 
0.00544145     0.842140      85.9144 
 0.0129332     0.402492     -116.565 
0.00192991      2.26433      65.4723 
0.00182199      2.88617      67.1663 
0.00181012      2.21964      65.5133 
0.00176487     0.975910      45.8303 
0.00496546      2.87847      67.5333 
0.00169578     0.472017      53.6157 
0.00169539      1.10055      70.9065 
0.00167540      2.31741      64.9831 
0.00593120     0.961665      45.0000 
0.00312065      7.32797      60.2163 
0.00664179     0.411825     -119.055 
0.00159184      2.20145      65.2976 
0.00445438     0.444072      54.1624 
0.00158483      2.49239      72.7283 
0.00295352     0.840952      87.2737 
0.00150497      2.47758      63.6418 
0.00292088      2.89696      67.6844 
0.00146988      1.18929      70.3462 
0.00277825      2.15676      65.3362 
0.00143755      2.48652      73.1683 
0.00141075      7.32060      60.0027 
0.00272598      6.90545      62.7670 
0.00138188      2.51340      63.0272 
0.00263023      2.91548      67.8337 
0.00132341      1.32257      69.6468 
0.00131856      7.37027      60.5830 
0.00251748     0.820244      88.6028 
0.00128770      2.53124      63.2325 
0.00127393     0.538145      48.0128 
0.00126296      6.86073      62.7627 
0.00227986     0.975910      44.1697 
0.00125368      2.48081      73.6105 
0.00123823      7.28892      59.4946 
0.00342832      2.13026      65.6006 
0.00123216    0.0894428      63.4351 
0.00121493      2.88943      68.0513 
0.00230610      1.34134      69.9439 
0.00119548      6.84295      62.6860 
0.00118880      7.43820      61.2297 
0.00118388     0.947629      44.1449 
0.00225525      2.54031      62.8297 
0.00116681     0.468615      50.1944 
0.00116495      6.98370      59.5428 
0.00422592      2.90799      68.1986 
0.00113776     0.704557      96.5198 
0.00113387      2.47524      74.0546 
0.00111940      7.46373      61.5121 
0.00111087      6.94622      59.7436 
0.00110491     0.933809      43.2643 
0.00213220      6.72619      63.1302 
0.00107718     0.608276      43.6678 
0.00107090     0.925419      83.7965 
0.00107211      7.29213      59.1440 
0.00104902      7.48131      61.5851 
0.00103358     0.631506      100.954 
0.00195139      2.44524      74.8271 
0.00101837      7.00357      62.9959 
0.00195821      1.36704      69.4440 
0.000993507      6.99385      59.4015 
0.000992006    0.0600002      90.0000 
0.000988058     0.651153      100.620 
0.000986687      7.51651      61.7302 
0.00271566      2.93401      67.9810 
0.00271792      2.54951      62.4299 
0.000983633     0.622897      42.3974 
0.000969348      6.59203      63.1240 
0.000969032      2.11206      65.3764 
0.000958117     0.973242      80.5377 
0.000955363      7.28527      58.9283 
0.00184236      1.00419      44.1931 
0.000937687      6.96764      63.2143 
0.000933674    0.0800001      90.0000 
0.000928522      6.46829      62.1672 
0.000913588     0.635610      102.724 
0.00177048      7.52471      61.9365 
0.000911521      6.97665      59.3179 
0.000909279     0.594643      42.2737 
0.00241772    0.0824621      104.036 
0.000884778      6.59215      63.9014 
0.000875149      7.01236      63.2157 
0.000872834      2.13860      65.1126 
0.00163897      6.29784      62.3771 
0.000866766     0.947629      82.7250 
0.000864248      4.01542      67.1387 
0.000856254      2.44008      75.2803 
0.000856933     0.480833      45.0000 
0.000851948      7.01430      59.1203 
0.00164096     0.640312      104.470 
0.00164326     0.990354      43.3634 
0.000836397    0.0632457      108.435 
0.000833639      7.34019      58.8221 
0.000822643      6.58337      64.0577 
0.000821467      1.37419      68.6631 
0.000812734      6.27085      62.4542 
0.000809291      6.95865      63.3613 
0.00156213      7.55068      62.2132 
0.000801880      4.02323      66.8762 
0.00142504      1.01607      79.7960 
0.00290009      2.92657      68.3440 
0.000787092      6.98687      59.1769 
0.000786686      2.41570      75.6186 
0.00944260     0.393954     -113.962 
0.00198525      8.67553      60.8941 
0.00149884      2.12047      64.8852 
0.000773039     0.538145      41.9872 
0.00146233      2.55883      62.0329 
0.000755941      6.61937      64.2092 
0.000750894     0.948472      42.4362 
0.000749032      7.32309      58.7410 
0.000743370      1.40014      68.1986 
0.000743365      6.97653      63.4349 
0.00304836     0.659697      104.036 
0.00384241      4.04163      66.9876 
0.000729937      2.61297      73.0907 
0.000729934      6.23468      62.6952 
0.00132811      6.94228      59.1495 
0.000713851      2.34307      76.6755 
0.00138351      7.56762      62.6223 
0.000712523     0.837377      40.1560 
0.000708760    0.0894428      116.565 
0.000702752      6.58401      64.4469 
0.000697888     0.992975      80.7274 
0.000699180     0.481664      41.6336 
0.00134526      6.20774      62.7745 
0.000687419      7.35056      58.6887 
0.000682182      6.96761      63.5820 
0.00163921     0.976729      42.5105 
0.000777634      2.31905      77.0424 
0.000667594      6.96971      59.0926 
0.000663605      1.45836      64.8407 
0.000663371     0.128063      128.660 
0.000655685      6.57541      64.6041 
0.00156285      8.68527      60.7788 
0.00124135      2.12904      64.3978 
0.000645528      2.66301      72.5176 
0.00182588     0.935094      41.5318 
0.000637418     0.396989      40.9144 
0.00248662      2.56827      61.6388 
0.000631704      7.57623      62.8262 
0.00276038      7.36098      58.5557 
0.000628665      6.94081      63.6565 
0.000628426     0.645600      106.189 
0.000617083      6.24388      62.5321 
0.00319857      2.29513      77.4170 
0.000617973     0.100000      53.1301 
0.000609309      2.95256      68.1265 
0.000609593      6.56686      64.7617 
0.000605939      1.51182      62.4180 
0.00108621      5.42232      68.3556 
0.00115463     0.200000      143.130 
0.00114813      6.02332      65.4773 
0.000592206      7.56711      62.9609 
0.000586925      2.68209      72.6460 
0.000579618     0.512250      38.6598 
0.00161281      6.93196      63.8046 
0.000572786      6.43581      61.2048 
0.00128305     0.989949      81.8699 
0.00110990      2.98617      67.5572 
0.00209504      5.39637      68.4746 
0.000558789      7.59373      63.2325 
0.00209305      1.55795      60.8025 
0.000551358      6.88744      59.2645 
0.000549794      6.54990      65.0782 
0.000546911     0.384188      38.6598 
0.00105938      8.65806      60.8297 
0.000533970      6.23541      62.2843 
0.000527117     0.161245      29.7449 
0.00172270      5.40374      68.2773 
0.00100824      2.13776      63.9144 
0.000523899      7.57588      63.1644 
0.000521135      2.70118      72.7725 
0.000518708      8.23468      61.2563 
0.00100477     0.963327      41.6335 
0.000989346      5.97227      66.0960 
0.000506463      6.73029      59.8539 
0.000502317     0.228035      142.125 
0.00120259      2.27130      77.7995 
0.000498020      3.01231      67.3509 
0.000494261      6.25412      61.9598 
0.000493286     0.344093      35.5377 
0.000494226      6.53315      65.3964 
0.000482811      7.58475      63.3674 
0.000478748      2.72624      72.4955 
0.000472981      7.90205      65.3160 
0.000472575     0.244131      145.008 
0.000913048      3.02007      67.0007 
0.000467836      6.62100      60.1049 
0.000465591     0.400000      36.8699 
0.000464368      8.21715      61.1892 
0.000893448     0.679117      103.627 
0.000898736     0.921954      40.6013 
0.00231723      2.57783      61.2476 
0.000456930      6.87843      63.9565 
0.000456291      6.22707      62.0358 
0.00102665      4.06787      66.8384 
0.000452436      7.55791      63.4349 
0.000801018      1.06301      78.0558 
0.000447351      6.52484      65.5560 
0.000447129      6.96287      58.8669 
0.000445662      5.96419      66.2716 
0.000441251     0.256125      141.340 
0.00117728      8.70274      60.8431 
0.000864940      7.40554      58.5851 
0.000824220     0.332866      32.7353 
0.000432253      2.72029      72.8973 
0.000841553      7.90364      65.6400 
0.000428765      2.14663      63.4349 
0.000427561      8.20931      60.9996 
0.00120456      8.52931      65.4782 
0.000424157      6.24593      61.7117 
0.000419540      6.51659      65.7161 
0.00121837      1.56780      60.1645 
0.000806110      5.95617      66.4477 
0.000416227      3.04631      66.8014 
0.000416457     0.196977      23.9625 
0.000413295      6.66837      59.7436 
0.000406403     0.272029      143.973 
0.000402074      2.69533      73.1786 
0.000401249     0.713863      101.310 
0.000400380      7.52215      63.2987 
0.000399501      6.89640      64.0294 
0.000399208      8.19183      60.9318 
0.000397410      6.21884      61.7866 
0.000396910     0.812157      37.9987 
0.000396961      1.03576      79.9920 
0.000770515      3.05424      66.4566 
0.000749108      6.50839      65.8766 
0.000386557      4.10210      66.4346 
0.000384736      6.73323      59.4741 
0.000384919      8.54751      65.5339 
0.000382468      7.92187      65.6997 
0.00148383      2.15564      62.9595 
0.00101731     0.300000      143.130 
0.00139667      1.00499      42.5805 
0.000612915      6.20123      61.6992 
0.000371307      7.68044      59.8295 
0.000371105      8.17435      60.8637 
0.000504626      5.00000      69.3903 
0.000691315     0.698570      103.241 
0.000368043     0.295296      28.3008 
0.000707984      2.71448      73.3008 
0.000364610      7.91366      65.8317 
0.000362791      8.72995      60.7924 
0.00114867      2.22800      78.0849 
0.000648800      4.18120      66.0097 
0.000661710      5.92193      66.7252 
0.000355815      6.67847      59.5954 
0.00120808     0.828010      37.1467 
0.000353940      3.04401      65.9611 
0.000352975      7.46860      63.7780 
0.000873852      5.42973      68.1594 
0.000982813      8.94830      65.1533 
0.000668787      6.86967      64.1064 
0.00120135      6.21073      61.5368 
0.000348207      7.27186      58.4957 
0.000345559     0.404969      32.9052 
0.000344687     0.684105      105.255 
0.00134970      4.96258      69.2277 
0.000343323      8.52103      65.6006 
0.000341625      8.18411      60.7414 
0.000649733      1.01863      43.4089 
0.000338759      3.07044      65.7723 
0.000337666      7.92376      66.0228 
0.000648629      7.81017      59.3634 
0.000485303      7.45402      67.7704 
0.000334355      1.58518      60.5241 
0.000334766      5.94821      66.6243 
0.000333926     0.170880      20.5561 
0.00116471      5.63152      60.8861 
0.000332996      4.27874      65.7112 
0.000329093      6.50025      66.0375 
0.000327607      6.24743      61.3017 
0.00110790      4.98128      69.3093 
0.000325785      6.91829      58.8374 
0.00153644     0.328024      142.431 
0.000534125      5.47430      68.1208 
0.000617433      8.49456      65.6677 
0.00102751      3.05188      61.4195 
0.00112178      2.68403      73.9960 
0.000317526      7.34392      58.4743 
0.000316785      2.14159      78.6901 
0.000663296      7.46161      67.6282 
0.000313930     0.215407      21.8014 
0.000314530      4.50644      66.7346 
0.000312757      7.96844      66.0083 
0.000310853      8.21133      60.6879 
0.000502081      2.18257      62.7305 
0.000309500      7.44183      63.8481 
0.000559313      5.45575      68.0426 
0.000300157     0.733485      101.004 
0.000298808      2.08279      78.3664 
0.000795079      7.47254      67.8284 
0.00108876      2.58751      60.8594 
0.000296927      7.96033      66.1398 
0.000296294     0.241661      24.4440 
0.000296290      4.48807      66.6338 
0.000295333      6.67140      59.3603 
0.000294432      3.08058      66.2641 
0.000290732      7.32688      58.3925 
0.000536946      6.83427      64.3348 
0.000289767      1.36616      72.0955 
0.00205365      7.82038      59.2373 
0.000285928      8.19390      60.6194 
0.00126891      2.16120      78.7940 
0.000764405     0.718053      102.875 
0.000753899      2.70880      73.7060 
0.000281184      8.96645      65.2070 
0.000280569      5.48179      67.9269 
0.000278570      8.46811      65.7352 
0.000756174     0.234094      19.9831 
0.000532440      5.98251      66.3487 
0.000532905      7.97862      66.1979 
0.000773992      3.06946      61.5981 
0.000525495      4.54321      66.9339 
0.000272464      6.65420      59.2725 
0.000269759      6.46579      66.2894 
0.000268889      2.04362      78.1402 
0.000266508      7.29937      58.4439 
0.000266636      9.76166      66.3236 
0.000479546      7.42428      64.1252 
0.000499231      4.20761      65.8716 
0.000264278     0.732393      34.9920 
0.000263957      6.86096      64.2566 
0.000737776      8.99300      65.1448 
0.000259622      9.57549      65.3084 
0.000257181      8.44166      65.8032 
0.000255719      8.18633      60.4287 
0.000255244      1.34104      72.6460 
0.000676807      4.94389      69.1455 
0.000253154      6.90119      58.7515 
0.000250890     0.749667      99.2110 
0.000667050      9.79032      66.5248 
0.000248991      7.48011      67.6865 
0.00120918      7.35440      58.3415 
0.000245790      3.11724      66.5601 
0.000244837     0.260000      22.6199 
0.000720196      5.44830      68.2376 
0.000755760      1.76238      80.8584 
0.000241399      7.40629      64.0577 
0.000238858      7.97057      66.3295 
0.000461459      8.41522      65.8716 
0.000408255      2.18083      78.8962 
0.000237109      9.77198      66.4781 
0.000449884     0.340588      139.764 
0.000459183      8.95064      70.5529 
0.000235509      5.53245      61.0259 
0.000458344      6.04334      65.9798 
0.000416838      1.34715      71.8340 
0.00121240      7.49861      67.7445 
0.000231792      4.58004      67.1299 
0.000650712      2.56031      61.0323 
0.000231272      8.20373      60.4977 
0.000449750      6.82563      64.4861 
0.000228864      9.53079      65.3172 
0.000769036     0.228035      15.2552 
0.000228967     0.689638      106.858 
0.00167769     0.991564      41.7295 
0.000228252      6.63702      59.1843 
0.000224265      3.10696      66.0750 
0.000424534      9.06221      60.6629 
0.000352391      2.12198      78.5842 
0.000220302      6.93908      58.5548 
0.000219878      4.53542      67.1663 
0.00107380      9.01115      65.1982 
0.000762264      3.03434      61.2388 
0.000558749      5.47810      61.1892 
0.000215319      8.61339      60.8162 
0.000214930      6.18362      61.6114 
0.000212848     0.648999      33.6901 
0.000212600      9.51262      65.2669 
0.000598514      8.97617      70.4750 
0.00198258      7.33738      58.2595 
0.000209728      3.28317      67.8097 
0.000209133      8.00722      66.4444 
0.000534803      9.78237      66.6322 
0.000620646      2.70326      74.1128 
0.000207009      4.15480      66.1495 
0.000380356      6.81704      64.6378 
0.000205605      1.37244      71.3010 
0.000554987      6.06976      65.8842 
0.000204171      4.59848      67.2268 
0.000203844      8.36239      66.0097 
0.000203589      6.58219      59.3050 
0.000201307     0.252982      18.4350 
0.000201592      1.94587      77.5351 
0.000199934     0.646220      111.801 
0.000199269      9.48610      65.3261 
0.000198988      7.03864      58.4778 
0.000195331      3.30170      67.9408 
0.000381454      6.84368      64.5583 
0.000520591      2.72800      73.8238 
0.000192980      9.03770      65.1363 
0.000821173      4.61693      67.3229 
0.000191260      7.43360      64.3312 
0.000191188     0.721110      33.6901 
0.000517459      9.76402      66.5857 
0.000188916      8.17885      60.2377 
0.000357708      8.35428      66.1350 
0.000657252      1.96540      77.6609 
0.000499637      2.57006      60.6422 
0.000187488     0.664831      111.161 
0.000186705      5.50527      61.1071 
0.000186260      4.09414      66.6912 
0.000349134      6.15652      61.6866 
0.000356726      9.46792      65.2756 
0.000184152      4.92520      69.0627 
0.000181715      2.24758      78.1901 
0.000181450      8.04390      66.5582 
0.000180441      6.82246      58.5465 
0.000180737      9.07965      60.7247 
0.000450019      8.59593      60.7512 
0.000555799      3.08707      61.7747 
0.000350830      6.05151      65.8068 
0.000464474      2.54283      60.8141 
0.000391527      5.43342      61.1707 
0.000176962      9.02727      70.3206 
0.000634553      1.76567      80.2176 
0.000799162      7.45163      64.3978 
0.000174743      3.17238      66.9911 
0.000893242     0.316228      145.305 
