select I, 1, 8
! Flux (Jy) Radius (mas)  Theta (deg)  Major FWHM (mas)  Axial ratio   Phi (deg) T \
! Freq (Hz)     SpecIndex
  0.531370    0.0894423      116.565 
  0.305245     0.113137      135.000 
  0.262951     0.126491      108.435 
 0.0244385     0.200000     -143.130 
 0.0235169     0.368781      77.4712 
 0.0226633     0.400000     -126.870 
 0.0219375     0.494773      75.9638 
 0.0411901     0.488262     -124.992 
 0.0206209     0.544059      72.8972 
 0.0758624      2.13953      69.1932 
 0.0194677     0.582409      74.0546 
  0.103286     0.544059     -126.027 
 0.0681802     0.632456      71.5651 
 0.0170773      2.12565      70.2011 
  0.210627      2.08806      69.8293 
 0.0289951     0.670522      72.6460 
 0.0955828     0.576888     -123.690 
  0.163579     0.721110      70.5600 
 0.0274408      6.49985      60.9111 
 0.0162041      6.48049      61.2202 
 0.0147199      6.51558      61.3895 
 0.0269897     0.610573     -121.607 
0.00684273      6.65925      61.2797 
0.00656336      6.12000      61.9275 
0.00997577     0.683520      69.4439 
0.00635640      6.83801      61.3360 
0.00979962      6.06590      62.0831 
0.00593931      6.96253      61.5209 
 0.0165907     0.590593     -118.301 
0.00569177      5.95785      62.4027 
 0.0108551      6.99771      61.6771 
0.00928667      5.84999      62.7341 
 0.0101218     0.758947      71.5651 
0.00502353      5.79614      62.9044 
0.00498203      7.03295      61.8317 
 0.0140754     0.536656     -116.565 
 0.0199837      2.05056      69.4440 
0.00473392      6.97883      61.9661 
0.00915150      5.68859      63.2548 
 0.0114361     0.772528      68.7495 
0.00448476      7.01416      62.1197 
 0.0109120     0.809938      69.7751 
0.00426204      7.04954      62.2717 
0.00822837     0.572713     -114.775 
0.00421965      5.52768      63.8058 
0.00658794     0.847585      70.7100 
0.00406272      4.59077      67.4569 
0.00405313      6.96012      62.2568 
0.00383610      7.15598      62.7188 
0.00382067      4.53855      67.7297 
 0.0107294     0.520000     -112.620 
0.00361850      7.26284      63.1527 
0.00360132      4.64310      67.1903 
0.00946906      6.29883      61.9703 
0.00343426      3.93731      69.1714 
0.00340955      7.72787      63.5676 
0.00338245      5.36731      64.3898 
0.00333423      6.60242      62.1930 
0.00324041      7.90676      63.5646 
0.00323926      3.70794      69.8057 
0.00622052     0.557135     -111.038 
0.00315765      4.99552      65.8978 
0.00600132      2.03686      70.4975 
0.00602346      7.88903      63.8247 
0.00593768      3.67042      69.5901 
0.00303109      6.38824      61.9908 
0.00564056     0.735391      67.6199 
0.00295753      5.04841      65.6688 
0.00289209      6.51300      62.1759 
0.00292143     0.609262     -113.199 
0.00281955      8.13978      64.0645 
0.00272634      3.75936      69.4440 
 0.0126388     0.594643     -109.654 
0.00270205      5.11812      65.0372 
0.00268472      7.79959      63.8292 
0.00262879      6.54840      62.3393 
0.00262125      8.67779      64.6161 
0.00256747      3.63296      69.3701 
0.00252747      7.69259      64.1011 
0.00252254      5.17131      64.8225 
0.00249376      6.45898      62.3241 
0.00246106      8.82261      65.0616 
0.00242041      3.54401      69.5196 
0.00239401      7.65663      63.9704 
0.00407314      4.88999      66.3706 
0.00236241      6.42358      62.1584 
0.00232086      8.84217      65.4059 
0.00231348      1.91039      70.4269 
0.00551603      3.36618      69.8424 
0.00226774      7.60316      64.1090 
0.00225838     0.662118      64.9831 
0.00223429      6.28013      62.2924 
0.00431751      4.83735      66.6148 
0.00219867      8.87856      65.5133 
0.00219816      2.10219      68.8059 
 0.0171495     0.582409     -105.945 
0.00733603      3.41760      69.4440 
0.00215458      7.54973      64.2495 
0.00210888      6.40500      62.4748 
0.00208989      8.91498      65.6199 
0.00207518      2.01316      69.0442 
0.00203728      7.63916      64.2400 
0.00202039     0.590593      61.6992 
0.00368096      3.32866      69.6051 
0.00389382      8.97160      66.0634 
0.00198774      1.62086      74.2488 
0.00198047      6.45786      63.1175 
0.00195446      4.80067      66.4253 
0.00193635      7.58578      64.3808 
0.00191719     0.576888      56.3099 
0.00189593      2.22171      66.6660 
0.00186805      6.42221      62.9562 
0.00184983      4.78481      66.8643 
0.00360251      7.62186      64.5108 
0.00180992      8.99208      66.3998 
0.00179365      2.02781      67.9887 
0.00176669      5.85177      61.8584 
0.00173453      1.39714      76.7595 
0.00171788      6.62118      64.9831 
0.00171442      8.97615      66.6338 
0.00169885     0.509117      45.0000 
0.00166852      7.65799      64.6396 
0.00164972      2.08000      67.3801 
0.00320706      9.04964      66.8347 
0.00161596      6.60436      65.2976 
0.00160537      4.95903      65.7090 
0.00160836     0.610573      58.3925 
0.00432388      7.76464      64.3590 
0.00157181      2.13242      66.8014 
0.00932217      3.45508      69.6769 
0.00296140      1.22376      78.6901 
0.00153824      5.80055      61.1373 
0.00150995      6.73380      66.1757 
0.00149219      4.61268      68.1063 
0.00148800     0.488262      34.9920 
0.00255768      7.80072      64.4861 
0.00148504      9.07083      67.1663 
0.00147030      2.18504      66.2505 
0.00643050     0.572713     -102.095 
0.00143435      6.81880      58.9210 
0.00141846      9.01847      67.3019 
0.00140798      5.52941      61.9519 
0.00138060      6.61852      67.6199 
0.00137322     0.538145      41.9872 
0.00136372      2.14849      65.8209 
0.00135723      4.56070      68.3852 
0.00135245      9.05539      67.3996 
0.00131283      1.38852      78.3664 
0.00130909      5.75027      60.4034 
0.00129515      6.69256      67.8806 
0.00128171     0.512250      38.6598 
0.00352990      9.07709      67.7297 
0.00127362      2.20145      65.2976 
0.00246374      7.81803      64.2216 
0.00125124      7.01313      57.5789 
0.00124348      4.75395      67.7510 
0.00122159      1.26301      79.0459 
0.00119933      6.61102      68.7136 
0.00119405      5.56748      61.2253 
0.00119099     0.521536      32.4712 
0.00118337      2.29085      65.2249 
0.00117032      9.11412      67.8250 
0.00115510      7.12359      57.3808 
0.00114656      1.30231      79.3803 
0.00113374      4.73895      68.1986 
0.00112222      7.89015      64.4742 
0.00556572      9.09910      68.0583 
0.00111319     0.544059      36.0274 
0.00213887      2.30790      64.3232 
0.00111365      6.63397      69.1609 
0.00108552      5.79669      58.8328 
0.00106401      1.34164      79.6952 
0.00106112      7.16704      56.8421 
0.00104163      4.79099      67.9321 
0.00104006      6.56841      69.6890 
0.00102980     0.568507      39.2894 
0.00100566      7.87147      64.0860 
0.000995855      5.83849      58.1611 
0.000988012      1.33507      81.3843 
0.000982677      7.20056      57.0162 
0.000967896      4.72424      68.6490 
0.000970129      6.59224      70.1357 
0.000967217      9.06201      67.9638 
0.00185037     0.555698      30.2564 
0.00184866      2.32551      63.4349 
0.000945216      7.83684      64.6121 
0.000924778      1.29553      81.1193 
0.000915917      7.22241      56.7500 
0.000914535      5.68690      59.1054 
0.000905540      6.68108      70.0462 
0.000899554      4.76151      68.8243 
0.000886940      7.90746      64.2127 
0.000867684      6.62987      70.2532 
0.000859949      1.25028      82.6476 
0.000846508      5.77068      57.7420 
0.000845965      7.62155      67.4727 
0.00156697      9.12140      68.3852 
0.000836693      7.21110      56.3099 
0.000829140      4.79883      68.9968 
0.000826368     0.600000      36.8699 
0.000825864      2.28980      62.9873 
0.000807897      8.08950      61.6609 
0.000806476      6.56549      70.7923 
0.000799218      1.32966      83.0888 
0.000782689      7.23337      56.0463 
0.000778773      5.05268      66.6823 
0.000769400     0.590593      28.3008 
0.000770271      7.40648      69.1180 
0.000768999      5.96858      56.2034 
0.000764234      2.30825      62.1027 
0.00144903      1.28561      84.6442 
0.000747897      8.05779      60.8901 
0.000790893     0.626099     -116.565 
0.000739081      6.51460      71.0088 
0.000729296      4.75714      70.3462 
0.000722142      7.20022      55.8685 
0.00139318      2.32723      61.2324 
0.000722099     0.609262      23.1986 
0.000709809      7.44387      69.2277 
0.000707286      9.22345      60.6558 
0.000720065     0.665732     -122.735 
0.000697830      5.85764      56.4184 
0.000691140      6.46381      71.2287 
0.000690646      8.08218      60.0089 
0.00133458      9.10675      68.6192 
0.000678500      4.87360      69.3339 
0.00131282     0.620967      14.9314 
0.000667474      7.13414      55.5080 
0.000695112     0.764199     -132.879 
0.000659020      7.48128      69.3364 
0.00127061      1.28250      86.4237 
0.000643875      6.45105      71.5651 
0.000643635      8.13683      59.9058 
0.000637692      5.90227      55.7715 
0.000631438      4.83256      70.6652 
0.000667131     0.820731     -136.975 
0.000627143      9.35222      60.2551 
0.000623473      2.31206      59.8863 
0.000619370      7.22274      55.6059 
0.000613059      7.46726      69.6236 
0.000610981      9.09224      68.8539 
0.000597516     0.651153      10.6197 
0.000598806      6.40050      71.7915 
0.000598654      8.08802      59.3764 
0.000696998     0.850411     -138.814 
0.000594430      5.11077      67.4491 
0.000585035      9.42677      59.9536 
0.000581800      1.44056      88.4089 
0.000579258      7.24541      55.3449 
0.000576087      5.81364      55.6539 
0.000574692      7.49101      70.0169 
0.000730556     0.880909     -140.528 
0.00160424      9.07789      69.0894 
0.00110094      2.35321      58.2011 
0.000559154     0.659697      14.0362 
0.000559902      6.43851      71.9027 
0.000558745      8.10846      59.1332 
0.000551496      5.01007      70.4077 
0.000547293      1.40000      90.0000 
0.000547152      3.49262      69.9048 
0.000542820      9.48143      59.8654 
 0.0144233     0.912140     -142.125 
0.000538217      7.52861      70.1209 
0.000535421      5.83630      55.3297 
0.000533710      7.23547      54.9042 
0.000526700     0.684690      6.70981 
0.000524001      10.4303      64.3194 
0.00101072      6.33782      72.3655 
0.000520795      8.18398      58.7961 
0.000519273      1.52210      93.0128 
0.000930345      3.53021      70.1278 
0.000510433      5.05964      71.5651 
0.000504205      7.51511      70.4077 
0.000500190     0.665732     -57.2648 
0.000500289      1.00717      83.1572 
0.000955043      7.17016      54.5366 
0.000496651      9.34340      59.3728 
0.000493554      10.4663      64.4143 
0.000491593      2.39633      56.5752 
0.000485208      8.23893      58.7023 
0.000481720     0.724431      6.34017 
0.000480533      4.85189      74.7035 
0.000479389      5.88218      54.6888 
0.000925284      3.50657      69.2910 
0.000919654      1.69706      98.1301 
0.000474306      7.60389      70.3259 
0.000471940      9.06369      69.3256 
0.000468794      10.4682      64.9037 
0.000461429      9.36385      59.1622 
0.000459664      2.36305      56.0409 
0.000457204      6.28764      72.6025 
0.000454396     0.967471      82.8750 
0.000453845      8.25978      58.4652 
0.000448477      7.71699      70.6259 
0.000446052      5.13560      71.8473 
0.00127483     0.712180     -51.8428 
0.000443577      10.4876      65.1943 
0.000441412      5.77068      54.8778 
0.000438392      9.04964      69.5625 
0.00150272      4.07451      46.5911 
0.00115396     0.761052      3.01278 
0.000430003      6.41411      72.5820 
0.000427605      9.45304      59.2026 
0.000426581      8.01359      58.0552 
0.000423363      10.5073      65.4838 
0.000423807      1.73666      97.9435 
0.000419777      7.70382      70.9065 
0.000803915      2.37622      53.9017 
0.000416134      7.07276      53.9726 
0.000412845      4.78565      77.9387 
0.000413403      8.97472      69.3842 
0.000410464      5.71496      54.9751 
0.00155304     0.933810      80.1342 
0.000405168      6.27579      72.9510 
0.000405208      10.5849      67.7965 
0.000399555      8.44606      57.9659 
0.000396193      9.50789      59.1189 
0.000394294      7.69083      71.1881 
0.000684665      1.81593      97.5946 
0.00108495      3.51682      70.7407 
0.000388861      5.59142      56.0826 
0.000388239      10.4908      65.6826 
0.000740051      7.16101      54.0903 
0.000738346      4.76957      78.8785 
0.000384179      8.96071      69.6236 
0.00105107      6.31405      73.0574 
0.000375541      8.23417      57.6996 
0.000370533      7.60221      71.2790 
0.000370708      9.52848      58.9125 
0.000723187      10.5921      68.2790 
0.000365295      6.22588      73.1950 
0.00101722      1.85559      97.4314 
0.000362921      5.51376      56.5405 
0.000695859      8.87180      69.6858 
0.000357796      2.36812      52.5494 
0.000349965      8.31086      57.3808 
0.000348674     0.835225      73.3008 
0.000346815      9.56276      59.0362 
0.000969336      7.71596      71.5651 
0.000340991      10.4648      63.4349 
0.000647209      2.39266      51.7890 
0.000333669      5.68225      54.7436 
0.00113218      4.10210      46.1853 
0.000332179      8.15470      57.0115 
0.000328907      10.6000      68.7607 
0.000329211      4.70846      80.2176 
0.000374173     0.737563     -49.3987 
0.000628348      7.03204      53.3256 
0.000321559      9.49425      58.7879 
0.000318144      5.33816      57.8581 
0.000315672      8.90932      69.7751 
0.000314549      10.5008      63.0445 
0.000312166      8.26540      56.8483 
0.000309791      3.54175      71.5651 
0.000601734      10.6229      69.0399 
0.000307741      6.26418      73.3008 
0.000304329      9.54920      58.7070 
0.000301965      5.30253      73.3422 
0.000569587     0.902441      77.1957 
0.000381169     0.764199     -47.1211 
0.000295718      8.94687      69.8637 
0.000294175      5.72880      54.0903 
0.000293311      3.50383      71.3582 
0.000290985      8.14312      56.6222 
0.000290025      4.68956      81.6626 
0.000289781      6.52871      72.8973 
0.000557770      2.36136      51.1886 
0.000285610      10.4849      62.2618 
0.000284004     0.764199      6.00899 
0.000283085      9.46006      58.6623 
0.000885771      8.17195      70.8555 
0.00231092      1.57175      104.744 
0.000277255      7.08802      53.2594 
0.000276810      8.32077      56.7683 
0.000276399      6.30251      73.4052 
0.000276087      5.40296      56.7805 
0.000274830      10.5856      68.9625 
0.000272702      9.02202      70.0386 
0.000525522      3.52931      72.1811 
0.000269642      4.64431      82.0793 
0.000267342      7.61493      71.9457 
0.000776343     0.791959     -45.0000 
0.000266193      10.5389      62.1706 
0.000263860      9.51504      58.5819 
0.000260369      5.67295      54.1805 
0.000259729      2.05407      96.7098 
0.000260869      8.22066      56.3099 
0.000260350      6.39062      73.2664 
0.000257980      10.6087      69.2417 
0.000257604      8.89557      70.0169 
0.000908913      2.33032      50.5722 
0.000252514      7.00000      53.1301 
0.000480998      7.69103      72.1305 
0.000250121      5.40651      74.1128 
0.000477403      9.44991      70.7214 
0.000697270      9.57004      58.5023 
0.000246133      8.18740      56.1547 
0.000244388      10.5577      61.9786 
0.000242598      5.44720      56.0765 
0.000463073      6.56695      72.9999 
0.000241398      4.59426      82.9987 
0.000501119      10.6320      69.5196 
0.000499923     0.769415      8.97265 
0.00219439      4.07333      45.7957 
0.000234567      2.21305      96.2258 
0.000233818      8.24291      56.0786 
0.000655184      3.54401      73.6105 
0.000231872      6.11529      74.0546 
0.000229695      6.93617      52.7336 
0.000228906     0.927793      82.5686 
0.000226831      5.34760      56.9043 
0.000226498      10.5946      69.4440 
0.000223252      10.5955      61.5967 
0.000223265      4.63396      83.0590 
0.000495362      8.54026      70.2920 
0.000612935      8.26530      55.8485 
0.000214571      5.72014      53.5308 
0.000211617      5.56058      74.5641 
0.000212011      7.02407      52.8691 
0.000580776     0.776659      11.8886 
0.000208984      10.6497      61.5098 
0.000320443      6.79353      72.5252 
0.00123221      13.1330      68.7495 
0.000396587      9.43678      70.9506 
0.000204621      9.53595      58.3768 
0.00133177      2.37217      95.8067 
0.000528669      4.58955      83.4944 
0.000391112      5.29226      57.0306 
0.000233421      10.6695      69.5948 
0.00133796      8.57793      70.3821 
0.000197315      6.19225      74.2580 
0.000370140      8.19922      55.5347 
0.000279459     0.820731     -43.0251 
0.000196074      6.99222      52.6712 
0.000545762      7.66686      72.6995 
0.000192462      10.6881      61.1328 
0.000191538      9.50192      58.2503 
0.000355002     0.963328      85.2364 
0.00148308      3.49445      74.0546 
0.000307351      4.62930      83.5505 
0.000188000      11.4700      58.6936 
0.000187296      10.6932      69.8704 
0.000527982      2.29957      49.9392 
0.000185730      6.65516      72.8720 
0.000181850      5.72545      74.6044 
0.000181653      6.96046      52.4716 
0.000351397      9.59100      58.2986 
0.000451263      10.0445      70.6992 
0.000177457      5.43662      55.4915 
0.000345409      11.4909      58.5232 
0.000701257     0.850412     -41.1859 
0.000174926      5.67634      74.8865 
0.000231602      1.04077      92.2026 
0.000169819      10.7683      70.0169 
0.000169358      3.53293      74.2328 
0.000317183      9.42380      71.1805 
0.000168057      5.45938      55.1455 
0.000164719      5.80262      74.8142 
0.000587618      7.04829      52.6098 
0.000163258      6.88186      72.4076 
0.000162530      8.16627      55.3758 
0.000300923      10.6725      60.8411 
0.000449786      9.55699      58.1726 
0.000160064      10.8059      70.0894 
0.000158416      5.71202      52.9696 
0.000303719      11.5459      58.4575 
0.000156309      10.0068      70.6235 
0.000300531      5.71496      74.9911 
0.000432041      2.26910      49.2892 
0.000500613      8.22192      55.3048 
0.000151691      6.84374      72.3064 
0.000150172      5.33622      56.3099 
0.000266655      1.19331      103.570 
0.000149096      14.7116      66.7810 
0.000274859      10.8435      70.1614 
0.000145831      7.65506      72.9853 
0.000269744      9.61208      58.0957 
0.000143640      8.13339      55.2157 
0.000414526      1.04307      94.3987 
0.000429822     0.880909     -39.4724 
0.000141449      4.37484      85.2799 
0.000140926      5.35851      55.9541 
0.000401139      14.7274      66.6379 
0.000138681      6.60521      73.1013 
0.000503218      13.1103      68.5232 
0.000265025      11.5668      58.2887 
0.000250969      10.8812      70.2328 
0.000330020      1.08665      96.3402 
0.000376312      7.64345      73.2720 
0.000261998      5.79227      75.1960 
0.000751709      21.6058      61.3472 
0.000132179      5.28076      56.4303 
0.000132047      4.37173      85.8023 
0.000346904      9.66718      58.0197 
0.000128257      1.34104      107.354 
0.000126983      5.30298      56.0702 
0.000541673      8.18907      55.1455 
0.000237061      9.41097      71.4110 
0.000545980      2.23893      48.6215 
0.000236097      14.7327      66.9852 
0.000547231      21.5707      61.2963 
0.000234425      5.83095      75.2964 
0.000222401      10.0823      70.7743 
0.000229213      11.6219      58.2245 
0.000232079      5.38100      55.6012 
0.000118135      9.72230      57.9446 
0.000482257      7.07265      52.3524 
0.000215254      10.6921      60.6539 
0.00112194     0.912140     -37.8750 
0.000220080      13.1027      68.1336 
0.000354580     0.885438      18.4349 
0.000111667      4.36898      86.3255 
0.000111253      14.5986      62.5924 
0.000108902      1.30292      107.879 
