select I, 1, 8
! Flux (Jy) Radius (mas)  Theta (deg)  Major FWHM (mas)  Axial ratio   Phi (deg) T \
! Freq (Hz)     SpecIndex
  0.316088    0.0199996     -90.0000 
  0.236342      0.00000      0.00000 
 0.0641928     0.277849     -120.256 
 0.0619761     0.100000      53.1301 
 0.0595573     0.377359     -122.005 
 0.0578780     0.172047      54.4623 
 0.0557966     0.421900     -121.430 
 0.0543637     0.188680      57.9946 
  0.101915     0.449444     -122.276 
 0.0512144     0.216333      56.3100 
 0.0939309     0.233238      59.0363 
 0.0467249     0.466476     -120.964 
 0.0860024     0.493963     -121.759 
 0.0431844     0.250599      61.3895 
 0.0408826     0.260768      57.5288 
 0.0771916     0.511077     -120.579 
 0.0755091     0.277849      59.7435 
  0.101583     0.528393     -119.476 
 0.0994169     0.295297      61.6992 
 0.0305068     0.555698     -120.256 
 0.0852138     0.313050      63.4349 
 0.0565460     0.545894     -118.443 
 0.0261939     0.573062     -119.249 
 0.0256461     0.304631      66.8014 
 0.0711440     0.563560     -117.474 
 0.0907001     0.323110      68.1986 
 0.0974211     0.581378     -116.565 
 0.0744571     0.341760      69.4440 
 0.0763655     0.599333     -115.710 
 0.0164470     0.360555      70.5600 
 0.0446773     0.354401      73.6105 
 0.0283674      2.12085      69.0013 
 0.0132791     0.373631      74.4759 
 0.0791506     0.590931     -113.962 
 0.0251782      2.10219      68.8059 
 0.0244561     0.392938      75.2564 
 0.0115111      2.09504      69.3159 
 0.0218334     0.412311      75.9638 
 0.0108749      2.07634      69.1210 
 0.0199431     0.609262     -113.199 
 0.0199448      2.05767      68.9225 
 0.0195572     0.431741      76.6075 
 0.0177979      2.03902      68.7204 
0.00905525     0.447214      79.6951 
 0.0248084     0.583095     -112.166 
 0.0245188     0.466905      80.1342 
0.00819779      2.02040      68.5145 
0.00773470      1.99449      68.8387 
0.00757414     0.538516     -111.801 
 0.0144415     0.486621      80.5377 
 0.0142815      1.97585      68.6294 
0.00724733     0.680294     -114.305 
0.00697928     0.373631     -105.524 
0.00672781     0.804984     -116.565 
0.00670055     0.509902      78.6901 
0.00659140      1.95724      68.4160 
0.00648326     0.329848     -104.036 
 0.0181878     0.529528      79.1145 
 0.0121826     0.849706     -116.565 
 0.0229940      1.93866      68.1986 
0.00606068     0.310483     -104.931 
0.00568231     0.305941     -101.310 
 0.0107016     0.876584     -117.150 
0.00547381     0.549181      79.5085 
 0.0149920     0.286356     -102.095 
 0.0148725     0.568859      79.8753 
 0.0304540      6.55649      60.3852 
0.00500472      1.89410      68.3109 
0.00940580     0.903548     -117.699 
0.00474516      2.22468      67.8160 
0.00454869      1.80499      68.5523 
0.00870662     0.565686      81.8699 
0.00439570     0.282843     -98.1301 
0.00433462      2.27693      67.2640 
 0.0189366     0.921303     -117.121 
0.00421122      1.74184      68.4429 
0.00797104     0.263059     -98.7461 
0.00787963     0.585491      82.1467 
0.00397414      2.29539      67.4569 
0.00390799      1.72325      68.1986 
0.00369646      2.32155      67.1903 
0.00365074     0.243310     -99.4622 
0.00361229     0.583095      84.0938 
0.00359109      1.69729      68.5747 
0.00995148      6.54663      60.5374 
0.00663862      2.34777      66.9296 
0.00624389     0.220907     -95.1941 
0.00341293     0.605310      82.4053 
0.00335370      1.66012      68.0704 
0.00324788     0.561427      85.9144 
0.00621781     0.240832     -94.7635 
0.00610842     0.939148     -116.565 
0.00312928      1.64158      67.8097 
0.00596617     0.560357      87.9546 
0.00299183      2.36618      67.1194 
0.00297857      6.57389      60.4713 
0.00293365      1.59700      67.9321 
0.00291367      5.93303      61.6208 
0.00281448      6.80485      60.7982 
0.00783524     0.930376     -115.463 
0.00279762      2.39240      66.8643 
0.00788882      1.56000      67.3801 
0.00276592      5.91544      61.5287 
0.00273845     0.503587      96.8427 
0.00269041      7.00723      61.5331 
0.00263746      5.90593      61.6992 
0.00261910      2.41081      67.0511 
0.00260871     0.164924     -104.036 
0.00260534     0.817068      68.4590 
0.00257028      6.68063      60.5955 
0.00252392     0.412311      112.834 
0.00477733     0.921954     -114.341 
0.00251684      7.13896      62.2863 
0.00249853      5.87074      61.5142 
0.00245195      2.41868      66.6148 
0.00243197     0.240000     -90.0000 
0.00240526      6.51939      60.6039 
0.00240634     0.869253      66.9745 
0.00238518      7.16517      62.5766 
0.00236706     0.377359      122.005 
0.00235211      5.83562      61.3269 
0.00232475      1.56780      66.7054 
0.00229861      2.43705      66.8014 
0.00226467      7.12968      62.4286 
0.00225656     0.356090      128.157 
0.00225537      6.44748      60.6519 
0.00221800     0.302655     -82.4052 
0.00430155      5.77339      61.2153 
0.00218896     0.903770      65.1363 
0.00217113      1.59411      66.3295 
0.00215724      7.17376      62.7920 
0.00418141      2.44499      66.3706 
0.00604895     0.948472     -114.944 
0.00212410     0.388330      124.508 
0.00212528      6.47472      60.5844 
0.00399952     0.325576     -79.3803 
0.00204608      7.18245      63.0068 
0.00204032      1.55756      65.7387 
0.00201791     0.421900      121.430 
0.00200375      6.50197      60.5174 
0.00381630     0.912360      63.9966 
0.00196188      5.79893      61.5788 
0.00194379      7.19122      63.5775 
0.00190870      1.60112      64.0751 
0.00190335      2.46333      66.5571 
0.00189680     0.432666      123.690 
0.00189169      6.52923      60.4510 
0.00185752      5.93030      62.9164 
0.00185156      7.20944      64.0036 
0.00181288      1.64596      62.5009 
0.00180445     0.412311      129.094 
0.00512495     0.940213     -113.839 
0.00324096      2.47136      66.1317 
0.00177753      6.60115      60.4058 
0.00176543      5.71118      61.1013 
0.00176424     0.354401     -73.6104 
0.00175543      7.21002      64.3590 
0.00171846     0.428019      127.405 
0.00171262      6.02847      63.6050 
0.00171201      1.63768      61.5571 
0.00168220      2.49776      65.8978 
0.00167829      7.67317      60.8294 
0.00166831      6.67308      60.3616 
0.00166545     0.948262      62.3540 
0.00466531     0.379473     -71.5651 
0.00164679      7.19389      65.0024 
0.00163500      4.81502      65.4576 
0.00315083     0.456070      127.875 
0.00162315      6.00203      64.1180 
0.00161122      1.69446      59.5002 
0.00294674      2.48966      66.3179 
0.00157102      7.18546      65.1469 
0.00156286     0.930591      61.7826 
0.00156224      6.54171      59.9075 
0.00155454      4.97562      65.2892 
0.00154478      7.71785      60.8444 
0.00153195      5.97609      64.6356 
0.00151723      1.74264      58.1340 
0.00294301     0.932309     -112.714 
0.00150691      4.37817      66.0109 
0.00149657      5.53075      61.4888 
0.00147222      7.18693      65.5033 
0.00147329     0.913017      61.1892 
0.00147164      6.62375      59.7187 
0.00513577     0.453431      131.424 
0.00143586      6.00377      64.9716 
0.00143812      4.96729      65.4988 
0.00278939      1.75328      57.5789 
0.00142231      7.76253      60.8594 
0.00139608      4.26244      66.2013 
0.00139292      7.18869      65.8595 
0.00138607      6.65111      59.6568 
0.00138541     0.895545      60.5725 
0.00137444     0.398497     -72.4744 
0.00136338      5.14471      64.9293 
0.00135814      6.00513      65.3981 
0.00134453     0.924770     -111.571 
0.00133465      7.78000      60.9311 
0.00131346      7.19881      66.0698 
0.00131147      6.62679      59.3328 
0.00130609      4.19142      66.3706 
0.00130141     0.905539      59.4703 
0.00129489      5.10972      65.2405 
0.00129749     0.386264     -68.7495 
0.00128557      5.78342      58.2887 
0.00127935      1.68024      81.0983 
0.00490365     0.468615      129.806 
0.00126909      2.51603      66.0838 
0.00126697      6.00683      65.8244 
0.00245396     0.950789     -112.249 
0.00351020      1.74734      56.6737 
0.00125050      7.01544      60.0728 
0.00124612      7.81499      61.0736 
0.00122160      5.02195      65.7827 
0.00122452     0.915860      58.3925 
0.00237042      7.22734      66.3434 
0.00121312      6.48968      58.6123 
0.00121368      4.14676      66.4023 
0.00327119     0.404969     -69.7751 
0.00119198      5.99867      65.9987 
0.00229451      2.53432      66.2671 
0.00116612      5.04020      65.8759 
0.00116308      7.49795      59.1935 
0.00115802      1.68962      83.8845 
0.00425940     0.898888      57.7244 
0.00114521      6.49360      58.2191 
0.00114136      3.98648      66.6504 
0.00298667     0.423792     -70.7099 
0.00112936      6.00886      66.2505 
0.00111925      5.75378      57.6357 
0.00111676     0.943398     -111.125 
0.00111589      4.92666      66.5571 
0.00110569      7.86755      61.2849 
0.00109444      1.70751      84.6233 
0.00108953      6.90159      59.7197 
0.00108417      7.23768      66.5519 
0.00107232      6.04549      66.4032 
0.00105975     0.917605     -110.410 
0.00105248      4.97932      66.3179 
0.00105165      3.94979      66.4205 
0.00104913      6.43640      57.6927 
0.00104463      2.55265      66.4477 
0.00103876      7.38477      58.8500 
0.00102698      7.92023      61.4935 
0.00102388      7.22974      66.6973 
0.00101925      1.72569      85.3466 
0.00100800      6.05587      66.6523 
0.00100763      5.12788      65.3341 
0.00100571      3.82382      66.2505 
0.000999051     0.472017      126.384 
0.000993949      6.44711      57.5424 
0.00274941      1.92042      54.3236 
0.000977002      7.34392      58.4743 
0.000975526      4.73544      67.6594 
0.00188814     0.936376     -109.983 
0.000971619      5.75847      57.1930 
0.00278098      8.64308      67.4107 
0.000962841      7.26650      66.8221 
0.000964081      6.11889      66.7030 
0.00175119      2.54472      66.8605 
0.00166823      3.77915      66.2838 
0.000940166      7.97300      61.6992 
0.000937143      1.72290      86.6726 
0.00168896     0.909726      56.6593 
0.000933131      5.05035      66.1757 
0.000923374      6.47472      57.4881 
0.000916432      7.28489      66.8840 
0.000918651      6.11101      66.8753 
0.00251507      2.56312      67.0362 
0.000903437      7.26532      58.2788 
0.000897579      4.75395      67.7510 
0.00165978      3.76085      66.1613 
0.00255113     0.882043      57.0306 
0.000883638      7.96354      61.8259 
0.00167328      6.16354      66.6793 
0.000873642      7.27706      67.0289 
0.000872005      1.74287      86.7108 
0.000863798      5.70319      57.3131 
0.00503150     0.442719     -71.5650 
0.000858842      4.75752      68.2880 
0.000856623      7.20378      58.1632 
0.000853069      6.41829      56.9537 
0.00164216      8.62462      67.3597 
0.00163261     0.962081     -110.695 
0.000839654      3.71430      65.5050 
0.000837152      6.12940      66.9487 
0.000840412      5.19792      64.7167 
0.000832420      9.20984      66.7197 
0.00409603     0.466905      133.264 
0.000822716      7.99882      61.9612 
0.000812976      7.29548      67.0902 
0.000808123      1.74184      87.3676 
0.000805723      4.67970      68.6988 
0.000806016      7.21435      58.0283 
0.00149088      3.69611      65.3764 
0.00154045      1.71406      55.9391 
0.000790730      6.32367      56.6115 
0.000786569      5.22383      64.1217 
0.000784500      9.23613      66.6548 
0.000775697      8.03415      62.0953 
0.00147146      7.30616      67.2957 
0.000763230      6.43546      65.5855 
0.00146382      7.23561      57.7596 
0.000754395      4.75891      69.5849 
0.000751396      8.60616      67.3084 
0.00386678     0.987927     -111.371 
0.000744687      5.93539      67.4098 
0.000739559      5.76351      56.7511 
0.00145770      9.25449      66.7039 
0.000739742      1.78045      88.7127 
0.000738971      8.10590      62.0439 
0.000729452      5.21463      63.8281 
0.000721913      2.57099      66.6258 
0.000720078      6.35138      56.5601 
0.000714551      8.79811      61.3376 
0.000715582     0.904434      54.9042 
0.00137430      4.73160      70.4928 
0.000706567     0.955196     -109.573 
0.000705623      6.39262      66.0011 
0.000694562      1.69753      55.5610 
0.000693607      8.56927      67.2053 
0.000689601      8.06119      62.0362 
0.00129707      2.57387      67.6199 
0.000683877      5.20557      63.5334 
0.000683965      6.01694      67.5266 
0.000679423      1.78011      89.3562 
0.000679937      9.27286      66.7527 
0.00306863     0.888144      54.1623 
0.000673755      6.24593      56.3608 
0.000669218      7.21870      57.6749 
0.00379919     0.980816     -110.283 
0.000665758      7.31694      67.5006 
0.000659423      3.51710      75.1735 
0.00127101      8.56154      67.3287 
0.000657371     0.430813     -68.1986 
0.000654211      6.03543      67.5992 
0.00126061      1.94402      53.3659 
0.000653189      2.58155      67.2094 
0.000648607      8.76304      61.2121 
0.00116628      5.19665      63.2377 
0.000643350      9.31751      66.7368 
0.000641685      8.08002      61.7857 
0.000637417      1.80011      89.3634 
0.000635088      5.79662      56.2551 
0.000631201      6.54306      65.6285 
0.000630672      3.52477      62.2717 
0.000629374      7.22941      57.5410 
0.00120607      7.32781      67.7049 
0.000623819      4.71190      71.1805 
0.000620847      4.04717      66.0950 
0.00115678      6.31804      56.3602 
0.00119827      9.33589      66.7853 
0.000606457      6.00933      67.7028 
0.000604648      5.16991      63.8315 
0.000601819      8.14236      61.8613 
0.000597744      1.80000      90.0000 
0.000595163      8.77268      61.0976 
0.000591369      3.46341      75.9638 
0.000590984      7.24017      57.4074 
0.00152993     0.449444     -69.1455 
0.00109022      2.59237      67.7882 
0.000582875      6.48198      65.9657 
0.00111551      3.51648      61.8317 
0.000577760      4.74342      71.5650 
0.000573115      5.86328      55.9847 
0.00235770     0.452548      135.000 
0.00158090      8.55385      67.4523 
0.000570347      5.95718      67.9128 
0.000567361     0.461736     -72.3498 
0.000565019      8.09901      61.5363 
0.00153158      1.95602      52.8958 
0.000560333      7.19569      57.3700 
0.000560325      3.48282      76.0436 
0.00156825      7.33877      67.9086 
0.000554073      2.58488      68.1986 
0.00108385      9.36216      66.7211 
0.000555268      5.14315      63.9332 
0.000551410      4.10000      65.8105 
0.00166822      1.86011      90.6161 
0.000548882      8.75518      61.0344 
0.000539781      4.74995      72.0991 
0.000539886      6.00177      67.8795 
0.00101940      8.10856      61.4121 
0.000525319      7.22332      57.3220 
0.000525699      1.66469      54.7824 
0.000527328      2.58898      69.1849 
0.000907080      6.54492      66.0197 
0.000520661     0.884082      52.3524 
0.000513191      4.08176      65.6955 
0.000509232      6.21266      56.1565 
0.000508318      8.76488      60.9200 
0.000994003      9.38844      66.6572 
0.000505095      3.42987      76.8551 
0.00136817      8.54620      67.5761 
0.000503298      5.97572      67.9849 
0.000501730      5.17876      63.6329 
0.00161184      4.73781      72.5594 
0.00130669     0.868332      51.5463 
0.000492717      7.21734      57.1026 
0.000484015      5.76340      56.0342 
0.000480938      6.52665      65.9484 
0.00211079     0.468188     -70.0169 
0.000480584      3.52596      61.5452 
0.000474111      5.94969      68.0913 
0.000473498     0.872009      53.3929 
0.00125489      3.40588      77.1063 
0.000470089      4.72479      72.2553 
0.000470011      8.74741      60.8563 
0.000468251      2.55225      74.5480 
0.000465694      8.10062      61.2202 
0.000467078      7.20056      57.0162 
0.000465124      7.33128      68.0535 
0.000459353      9.41473      66.5936 
0.000458205      6.25703      56.2083 
0.000457873      4.09004      65.4401 
0.000455593      5.16980      63.3358 
0.000453214      2.63036      64.7989 
0.000448818      5.99426      68.0566 
0.000866990      1.88011      90.6095 
0.00172111      1.64839      54.3815 
0.000443170      9.40681      66.7054 
0.000894024     0.852760      50.7106 
0.00125388      5.17880      63.1381 
0.000440556      8.70274      60.8431 
0.000532098      3.38638      77.0307 
0.000435130      7.22822      56.9695 
0.000433988      5.80238      55.8170 
0.000433476      8.12778      61.1645 
0.000430994      2.56125      75.5297 
0.00183010      3.53553      61.2602 
0.000842408      7.32382      68.1986 
0.000430301      6.04635      67.8467 
0.000423870      9.44104      66.5305 
0.000664002      6.61601      65.9144 
0.000419960      4.11655      65.3026 
0.000416537      6.32914      56.2095 
0.00109951      1.96815      52.4314 
0.000412939      2.65646      63.6279 
0.000411156      7.21146      56.8829 
0.000410009      8.15495      61.1092 
0.000405113      4.74384      72.3289 
0.000404528      9.44902      66.4192 
0.000402822      5.94226      68.2702 
0.000775053      8.72995      60.7924 
0.000740775      5.19700      62.7447 
0.00143532      8.53860      67.7002 
0.000392603      1.90011      90.6031 
0.000391225      5.77460      55.8696 
0.000390202      9.46735      66.4677 
0.000389976      4.16125      65.2826 
0.000387203      2.60000      75.7500 
0.000385742      7.17799      56.7084 
0.000385711      7.29784      68.2861 
0.000383969      8.13744      61.0411 
0.00135933     0.453431      138.576 
0.000379790      4.75689      72.6316 
0.000378260      2.63894      62.4639 
0.000377123      5.91628      68.3784 
0.000373019      6.28478      56.1582 
0.000372480      9.47536      66.3568 
0.00134171      5.18787      62.9410 
0.000371220     0.865564      49.6859 
0.000366793      1.92010      90.5968 
0.000366637      7.20569      56.6628 
0.000365708      7.31642      68.3440 
0.000703301      6.03884      68.0224 
0.000359163      2.61939      75.8576 
0.000358415      8.16463      60.9863 
0.000355532      9.48340      66.2461 
0.000353361      6.24042      56.1062 
0.000351157      7.19472      56.7959 
0.000351737      3.42538      77.1809 
0.000349823      7.27186      68.3742 
0.000960783     0.475394     -67.7509 
0.000348715      4.12495      65.0502 
0.000944513      8.71250      60.7282 
0.000344525      2.66593      62.2815 
0.00229028      1.92042      91.1935 
0.000669468      9.51786      66.0742 
0.000633202     0.995389     -112.443 
0.000336214      6.63427      65.9849 
0.000335972      5.75806      55.7580 
0.000331551     0.850412      48.8141 
0.000330728      8.19183      60.9318 
0.000331220      7.30906      68.4897 
0.000937405      7.21670      56.5301 
0.000609998     0.493963     -68.6293 
0.000613150      3.40147      77.4346 
0.000326663      2.57573      76.0717 
0.000815652      1.00319     -113.499 
0.000323779      5.96084      68.3414 
0.000320201      6.26817      56.0564 
0.000320016      2.66721      61.3210 
0.000609902      4.12393      64.4291 
0.000315646      9.54426      66.0131 
0.00115725     0.837377      49.8440 
0.000312101      7.28313      68.5784 
0.000789381     0.466905      136.736 
0.000310228      6.56320      66.0907 
0.000308155      8.16666      60.6728 
0.00110057      4.73185      72.7904 
0.000303746      8.55710      67.7510 
0.000303667      5.93488      68.4496 
0.000304112      3.35809      77.6192 
0.000586126      7.29449      68.7820 
0.000509668      1.94041      91.1812 
0.000300875      2.65767      61.6992 
0.000577510      9.57883      65.8432 
0.000538233      8.72229      60.6136 
0.000564639      5.21544      62.3540 
0.000551848      6.22383      56.0035 
0.000529982      2.60538      77.1372 
0.000291390      9.58703      65.7341 
0.000288739      8.49400      67.7226 
0.000545496      6.00540      68.3049 
0.000787193      1.98040      51.9728 
0.000284742      8.21133      60.6879 
